File: E5_bicarbonato.txt
"E5_bicarbonato - RawData"
"Wavelength nm."	"Abs."
190.000
194.000
198.000
202.000	3.813126
206.000	3.758743
210.000	3.747650
214.000	3.983383
218.000	3.875595
222.000	3.903625
226.000	3.878403
230.000	3.389496
234.000	2.624710
238.000	2.244156
242.000	2.079453
246.000	1.985046
250.000	1.917374
254.000	1.896042
258.000	1.924561
262.000	1.935165
266.000	1.902328
270.000	1.827911
274.000	1.721970
278.000	1.579407
282.000	1.438782
286.000	1.333405
290.000	1.271027
294.000	1.220184
298.000	1.202805
302.000	1.204193
306.000	1.227615
310.000	1.257477
314.000	1.281097
318.000	1.294037
322.000	1.298004
326.000	1.311584
330.000	1.310745
334.000	1.298309
338.000	1.264572
342.000	1.253281
346.000	1.216248
350.000	1.183212
354.000	1.139572
358.000	1.112198
362.000	1.081482
366.000	1.059677
370.000	1.036667
374.000	1.017593
378.000	0.992004
382.000	0.963959
386.000	0.926743
390.000	0.888718
394.000	0.842804
398.000	0.791672
402.000	0.733063
406.000	0.672012
410.000	0.610413
414.000	0.549774
418.000	0.490097
422.000	0.434875
426.000	0.381210
430.000	0.331802
434.000	0.286041
438.000	0.246902
442.000	0.212112
446.000	0.182220
450.000	0.155838
454.000	0.132523
458.000	0.113342
462.000	0.097885
466.000	0.085281
470.000	0.075302
474.000	0.067673
478.000	0.062180
482.000	0.058929
486.000	0.057556
490.000	0.057251
494.000	0.058121
498.000	0.059799
502.000	0.062897
506.000	0.066772
510.000	0.071548
514.000	0.076599
518.000	0.082733
522.000	0.090103
526.000	0.098434
530.000	0.107758
534.000	0.117905
538.000	0.129074
542.000	0.141235
546.000	0.154144
550.000	0.167679
554.000	0.181747
558.000	0.195816
562.000	0.209244
566.000	0.222656
570.000	0.235489
574.000	0.247162
578.000	0.258652
582.000	0.271317
586.000	0.283234
590.000	0.296906
594.000	0.307236
598.000	0.315948
602.000	0.321289
606.000	0.322281
610.000	0.318253
614.000	0.307953
618.000	0.290848
622.000	0.267365
626.000	0.238724
630.000	0.206894
634.000	0.176147
638.000	0.146561
642.000	0.121033
646.000	0.099045
650.000	0.081207
654.000	0.067429
658.000	0.057419
662.000	0.049805
666.000	0.044540
670.000	0.040558
674.000	0.037216
678.000	0.034302
682.000	0.031876
686.000	0.029922
690.000	0.028275
694.000	0.027634
698.000	0.023727
702.000	0.015167
706.000	0.011688
710.000	0.009659
714.000	0.008102
718.000	0.006500
722.000	0.005264
726.000	0.004135
730.000	0.002991
734.000	0.002014
738.000	0.001343
742.000	0.000793
746.000	0.000275
750.000	-0.000137
754.000	-0.000443
758.000	-0.000534
762.000	-0.000336
766.000	-0.000458
770.000	-0.000610
774.000	-0.000610
778.000	-0.000854
782.000	-0.000748
786.000	-0.000748
790.000	-0.000671
794.000	-0.000687
798.000	-0.000519
802.000
806.000
810.000
814.000
818.000
822.000
826.000
830.000
834.000
838.000
842.000
846.000
850.000
854.000
858.000
862.000
866.000
870.000
874.000
878.000
882.000
886.000
890.000
894.000
898.000
902.000
906.000
910.000
914.000
918.000
922.000
926.000
930.000
934.000
938.000
942.000
946.000
950.000
954.000
958.000
962.000
966.000
970.000
974.000
978.000
982.000
986.000
990.000
994.000
998.000
1002.000
1006.000
1010.000
1014.000
1018.000
1022.000
1026.000
1030.000
1034.000
1038.000
1042.000
1046.000
1050.000
1054.000
1058.000
1062.000
1066.000
1070.000
1074.000
1078.000
1082.000
1086.000
1090.000
1094.000
1098.000
1100.000